Data from 20250408_mbg_5_84_400uM_Absorbance__463__14-57-23-737.txt Node

Date: Tue Apr 08 14:57:23 CDT 2025
User: z670b875
Spectrometer: HR200277
Trigger mode: 0
Integration Time (sec): 1.000000E-1
Scans to average: 5
Electric dark correction enabled: true
Nonlinearity correction enabled: false
Boxcar width: 5
XAxis mode: Wavelengths
Number of Pixels in Spectrum: 2110
>>>>>Begin Spectral Data<<<<<
185.005	1.83
185.359	2.03
185.714	-0
186.068	-0
186.423	-0
186.777	-0
187.131	-0.23
187.486	0.29
187.84	0.7
188.194	0.21
188.549	0.42
188.903	1
189.257	-0
189.612	-0
189.966	-0
190.32	-0
190.674	-0
191.028	-0
191.383	-0
191.737	-0
192.091	-0
192.445	-0
192.799	-0
193.153	-0
193.507	-0
193.861	-0
194.215	-0
194.569	-0
194.923	-0
195.277	-0
195.631	-0
195.985	-0
196.339	-0
196.693	-0
197.047	-0
197.401	1.93
197.755	-0
198.109	0.66
198.462	0.44
198.816	0.46
199.17	0.37
199.524	0.34
199.878	0.38
200.231	0.68
200.585	0.7
200.939	0.93
201.292	0.84
201.646	0.85
202	0.98
202.353	1.27
202.707	0.94
203.061	0.69
203.414	0.56
203.768	0.45
204.121	0.39
204.475	0.32
204.828	0.27
205.182	0.36
205.535	0.31
205.889	0.37
206.242	0.34
206.596	0.33
206.949	0.28
207.302	0.29
207.656	0.24
208.009	0.2
208.362	0.2
208.716	0.26
209.069	0.2
209.422	0.2
209.776	0.15
210.129	0.2
210.482	0.05
210.835	0.07
211.188	0.14
211.542	0.17
211.895	0.17
212.248	0.2
212.601	0.17
212.954	0.15
213.307	0.13
213.66	0.11
214.013	0.1
214.366	0.28
214.719	0.27
215.072	0.21
215.425	0.2
215.778	0.25
216.131	0.27
216.484	0.26
216.837	0.28
217.19	0.35
217.543	0.41
217.896	0.37
218.249	0.36
218.602	0.35
218.954	0.34
219.307	0.34
219.66	0.32
220.013	0.32
220.365	0.33
220.718	0.34
221.071	0.3
221.424	0.28
221.776	0.32
222.129	0.3
222.481	0.33
222.834	0.29
223.187	0.31
223.539	0.27
223.892	0.23
224.244	0.21
224.597	0.2
224.949	0.19
225.302	0.19
225.654	0.18
226.007	0.21
226.359	0.18
226.712	0.23
227.064	0.25
227.417	0.29
227.769	0.31
228.121	0.34
228.474	0.37
228.826	0.37
229.178	0.4
229.53	0.41
229.883	0.41
230.235	0.44
230.587	0.46
230.939	0.44
231.292	0.47
231.644	0.48
231.996	0.47
232.348	0.47
232.7	0.49
233.052	0.51
233.404	0.54
233.757	0.53
234.109	0.54
234.461	0.53
234.813	0.56
235.165	0.56
235.517	0.6
235.869	0.63
236.221	0.66
236.572	0.67
236.924	0.71
237.276	0.72
237.628	0.77
237.98	0.79
238.332	0.84
238.684	0.86
239.035	0.88
239.387	0.89
239.739	0.91
240.091	0.93
240.442	0.96
240.794	0.95
241.146	0.97
241.498	0.99
241.849	1.02
242.201	1.04
242.553	1.06
242.904	1.08
243.256	1.1
243.607	1.12
243.959	1.12
244.31	1.12
244.662	1.14
245.013	1.14
245.365	1.13
245.716	1.13
246.068	1.1
246.419	1.08
246.771	1.07
247.122	1.06
247.473	1.04
247.825	1.03
248.176	1.01
248.527	0.99
248.879	0.97
249.23	0.95
249.581	0.93
249.933	0.92
250.284	0.9
250.635	0.88
250.986	0.86
251.337	0.84
251.689	0.82
252.04	0.8
252.391	0.78
252.742	0.76
253.093	0.75
253.444	0.73
253.795	0.71
254.146	0.69
254.497	0.67
254.848	0.66
255.199	0.64
255.55	0.62
255.901	0.61
256.252	0.6
256.603	0.58
256.954	0.57
257.305	0.56
257.656	0.54
258.007	0.53
258.357	0.53
258.708	0.52
259.059	0.51
259.41	0.5
259.761	0.49
260.111	0.49
260.462	0.48
260.813	0.48
261.163	0.47
261.514	0.47
261.865	0.46
262.215	0.46
262.566	0.45
262.917	0.45
263.267	0.44
263.618	0.44
263.968	0.44
264.319	0.44
264.669	0.43
265.02	0.43
265.37	0.43
265.721	0.43
266.071	0.43
266.422	0.43
266.772	0.42
267.122	0.42
267.473	0.42
267.823	0.42
268.173	0.41
268.524	0.41
268.874	0.41
269.224	0.4
269.574	0.4
269.925	0.39
270.275	0.39
270.625	0.38
270.975	0.38
271.326	0.38
271.676	0.37
272.026	0.37
272.376	0.37
272.726	0.36
273.076	0.36
273.426	0.36
273.776	0.35
274.126	0.35
274.476	0.35
274.826	0.34
275.176	0.34
275.526	0.34
275.876	0.33
276.226	0.33
276.576	0.32
276.926	0.31
277.276	0.31
277.625	0.3
277.975	0.3
278.325	0.29
278.675	0.29
279.025	0.28
279.374	0.28
279.724	0.27
280.074	0.27
280.424	0.27
280.773	0.26
281.123	0.26
281.473	0.25
281.822	0.25
282.172	0.25
282.521	0.24
282.871	0.24
283.221	0.23
283.57	0.23
283.92	0.23
284.269	0.22
284.619	0.22
284.968	0.22
285.317	0.21
285.667	0.21
286.016	0.21
286.366	0.21
286.715	0.2
287.064	0.2
287.414	0.2
287.763	0.19
288.112	0.19
288.462	0.19
288.811	0.19
289.16	0.18
289.509	0.18
289.859	0.18
290.208	0.18
290.557	0.17
290.906	0.17
291.255	0.17
291.604	0.16
291.954	0.16
292.303	0.16
292.652	0.16
293.001	0.15
293.35	0.15
293.699	0.15
294.048	0.14
294.397	0.14
294.746	0.14
295.095	0.13
295.444	0.13
295.793	0.13
296.141	0.12
296.49	0.12
296.839	0.12
297.188	0.12
297.537	0.12
297.886	0.11
298.234	0.11
298.583	0.11
298.932	0.11
299.281	0.11
299.629	0.1
299.978	0.1
300.327	0.1
300.675	0.1
301.024	0.09
301.373	0.09
301.721	0.09
302.07	0.09
302.418	0.09
302.767	0.09
303.115	0.08
303.464	0.08
303.812	0.08
304.161	0.08
304.509	0.08
304.858	0.08
305.206	0.07
305.555	0.07
305.903	0.07
306.251	0.07
306.6	0.07
306.948	0.07
307.296	0.07
307.645	0.07
307.993	0.06
308.341	0.06
308.689	0.06
309.038	0.06
309.386	0.06
309.734	0.06
310.082	0.06
310.43	0.06
310.778	0.05
311.127	0.05
311.475	0.05
311.823	0.05
312.171	0.05
312.519	0.05
312.867	0.05
313.215	0.05
313.563	0.05
313.911	0.04
314.259	0.04
314.607	0.04
314.955	0.04
315.303	0.04
315.65	0.04
315.998	0.04
316.346	0.04
316.694	0.04
317.042	0.04
317.389	0.04
317.737	0.04
318.085	0.03
318.433	0.03
318.78	0.03
319.128	0.03
319.476	0.03
319.823	0.03
320.171	0.03
320.519	0.03
320.866	0.03
321.214	0.03
321.561	0.03
321.909	0.03
322.257	0.03
322.604	0.03
322.952	0.02
323.299	0.02
323.646	0.02
323.994	0.02
324.341	0.02
324.689	0.02
325.036	0.02
325.383	0.02
325.731	0.02
326.078	0.02
326.425	0.02
326.773	0.02
327.12	0.02
327.467	0.02
327.814	0.02
328.162	0.02
328.509	0.02
328.856	0.01
329.203	0.01
329.55	0.01
329.898	0.01
330.245	0.01
330.592	0.01
330.939	0.01
331.286	0.01
331.633	0.01
331.98	0.01
332.327	0.01
332.674	0.01
333.021	0.01
333.368	0.01
333.715	0.01
334.062	0.01
334.408	0.01
334.755	0.01
335.102	0.01
335.449	0.01
335.796	0.01
336.143	0
336.489	0
336.836	0
337.183	0
337.53	0
337.876	0
338.223	0
338.57	0
338.916	0
339.263	0
339.61	0
339.956	0
340.303	0
340.649	0
340.996	0
341.342	0
341.689	0
342.035	0
342.382	0
342.728	0
343.075	0
343.421	-0
343.768	-0
344.114	-0
344.46	-0
344.807	-0
345.153	-0
345.499	-0
345.845	-0
346.192	-0
346.538	-0
346.884	-0
347.23	-0
347.577	-0
347.923	-0
348.269	-0
348.615	-0
348.961	-0
349.307	-0
349.653	-0
349.999	-0
350.345	-0
350.692	-0
351.038	-0
351.384	-0
351.729	-0
352.075	-0.01
352.421	-0.01
352.767	-0.01
353.113	-0.01
353.459	-0.01
353.805	-0.01
354.151	-0.01
354.497	-0.01
354.842	-0.01
355.188	-0.01
355.534	-0.01
355.88	-0.01
356.225	-0.01
356.571	-0.01
356.917	-0.01
357.262	-0
357.608	-0
357.954	-0
358.299	-0
358.645	-0
358.991	-0
359.336	-0
359.682	-0
360.027	-0
360.373	-0
360.718	-0
361.064	-0
361.409	-0
361.755	-0
362.1	-0
362.445	-0
362.791	-0
363.136	-0
363.481	-0
363.827	0
364.172	0
364.517	0
364.863	0
365.208	0
365.553	0.01
365.898	0.01
366.243	0.01
366.589	0.01
366.934	0.01
367.279	0.01
367.624	0.01
367.969	0.01
368.314	0.01
368.659	0.01
369.004	0.01
369.349	0.01
369.694	0.01
370.039	0
370.384	0
370.729	0
371.074	-0
371.419	-0
371.764	-0
372.109	-0.01
372.454	-0.01
372.799	-0.01
373.143	-0.01
373.488	-0.01
373.833	-0.01
374.178	-0.01
374.523	-0.01
374.867	-0.01
375.212	-0.02
375.557	-0.02
375.901	-0.01
376.246	-0.01
376.591	-0.01
376.935	-0.01
377.28	-0.01
377.624	-0.01
377.969	-0.01
378.314	-0.01
378.658	-0.01
379.003	-0.01
379.347	-0.01
379.692	-0.01
380.036	-0.01
380.38	-0.01
380.725	-0.01
381.069	-0.01
381.414	-0.01
381.758	-0.01
382.102	-0.01
382.447	-0.01
382.791	-0.01
383.135	-0.01
383.479	-0.01
383.824	-0.01
384.168	-0.01
384.512	-0.01
384.856	-0.01
385.2	-0.01
385.545	-0.01
385.889	-0.01
386.233	-0.01
386.577	-0.01
386.921	-0.01
387.265	-0.01
387.609	-0.01
387.953	-0.01
388.297	-0.01
388.641	-0.01
388.985	-0.01
389.329	-0.01
389.673	-0.01
390.017	-0.01
390.361	-0.01
390.705	-0.01
391.048	-0.01
391.392	-0.01
391.736	-0.01
392.08	-0.01
392.424	-0.01
392.767	-0.01
393.111	-0.01
393.455	-0.01
393.799	-0.01
394.142	-0.01
394.486	-0.01
394.83	-0.01
395.173	-0.01
395.517	-0.01
395.86	-0.01
396.204	-0.01
396.548	-0.01
396.891	-0.01
397.235	-0.01
397.578	-0.01
397.922	-0.01
398.265	-0.01
398.608	-0.01
398.952	-0.01
399.295	-0.01
399.639	-0.01
399.982	-0.01
400.325	-0.01
400.669	-0.01
401.012	-0.01
401.355	-0.01
401.699	-0.01
402.042	-0.01
402.385	-0.01
402.728	-0.01
403.071	-0.01
403.415	-0.01
403.758	-0.01
404.101	-0.01
404.444	-0.01
404.787	-0.01
405.13	-0.01
405.473	-0.01
405.816	-0.01
406.159	-0.01
406.502	-0.01
406.845	-0.01
407.188	-0.01
407.531	-0.01
407.874	-0.01
408.217	-0.01
408.56	-0.01
408.903	-0.01
409.246	-0.01
409.589	-0.01
409.931	-0.01
410.274	-0.01
410.617	-0.01
410.96	-0.01
411.303	-0.01
411.645	-0.01
411.988	-0.01
412.331	-0.01
412.673	-0.01
413.016	-0.01
413.359	-0.01
413.701	-0.01
414.044	-0.01
414.386	-0.01
414.729	-0.01
415.072	-0.01
415.414	-0.01
415.757	-0.01
416.099	-0.01
416.441	-0.01
416.784	-0.01
417.126	-0.01
417.469	-0.01
417.811	-0.01
418.153	-0.01
418.496	-0.01
418.838	-0.01
419.18	-0.01
419.523	-0.01
419.865	-0.01
420.207	-0.01
420.55	-0.01
420.892	-0.01
421.234	-0.01
421.576	-0.01
421.918	-0.01
422.26	-0.01
422.603	-0.01
422.945	-0.01
423.287	-0.01
423.629	-0.01
423.971	-0.01
424.313	-0.01
424.655	-0.01
424.997	-0.01
425.339	-0.01
425.681	-0.01
426.023	-0.01
426.365	-0.01
426.707	-0.01
427.048	-0.01
427.39	-0.01
427.732	-0.01
428.074	-0.01
428.416	-0.01
428.758	-0.01
429.099	-0.01
429.441	-0.01
429.783	-0.01
430.124	-0.01
430.466	-0.01
430.808	-0.01
431.149	-0.01
431.491	-0.01
431.833	-0.01
432.174	-0.01
432.516	-0.01
432.857	-0.01
433.199	-0.01
433.54	-0.01
433.882	-0.01
434.223	-0.01
434.565	-0.01
434.906	-0.01
435.248	-0.01
435.589	-0.01
435.931	-0.01
436.272	-0.01
436.613	-0.01
436.955	-0.01
437.296	-0.01
437.637	-0.01
437.978	-0.01
438.32	-0.01
438.661	-0.01
439.002	-0.01
439.343	-0.01
439.684	-0.01
440.026	-0.01
440.367	-0.01
440.708	-0.01
441.049	-0.01
441.39	-0.01
441.731	-0.01
442.072	-0.01
442.413	-0.01
442.754	-0.01
443.095	-0.01
443.436	-0.01
443.777	-0.01
444.118	-0.01
444.459	-0.01
444.8	-0.01
445.141	-0.01
445.482	-0.01
445.822	-0.01
446.163	-0.01
446.504	-0.01
446.845	-0.01
447.185	-0.01
447.526	-0.01
447.867	-0.01
448.208	-0.01
448.548	-0.01
448.889	-0.01
449.23	-0.01
449.57	-0.01
449.911	-0.01
450.251	-0.01
450.592	-0.01
450.933	-0.01
451.273	-0.01
451.614	-0.01
451.954	-0.01
452.294	-0.01
452.635	-0.01
452.975	-0.01
453.316	-0.01
453.656	-0.01
453.997	-0.01
454.337	-0.01
454.677	-0.01
455.018	-0.01
455.358	-0.01
455.698	-0.01
456.038	-0.01
456.379	-0.01
456.719	-0.01
457.059	-0.01
457.399	-0.01
457.739	-0.01
458.08	-0.01
458.42	-0.01
458.76	-0.01
459.1	-0.01
459.44	-0.01
459.78	-0.01
460.12	-0.01
460.46	-0.01
460.8	-0.01
461.14	-0.01
461.48	-0.01
461.82	-0.01
462.16	-0.01
462.5	-0.01
462.84	-0.02
463.179	-0.02
463.519	-0.02
463.859	-0.02
464.199	-0.02
464.539	-0.02
464.878	-0.02
465.218	-0.02
465.558	-0.02
465.898	-0.02
466.237	-0.02
466.577	-0.02
466.917	-0.02
467.256	-0.01
467.596	-0.01
467.935	-0.01
468.275	-0.01
468.614	-0.01
468.954	-0.01
469.293	-0.01
469.633	-0.01
469.972	-0.01
470.312	-0.01
470.651	-0.01
470.991	-0.01
471.33	-0.01
471.669	-0.01
472.009	-0.01
472.348	-0.01
472.688	-0.01
473.027	-0.01
473.366	-0.01
473.705	-0.01
474.045	-0.01
474.384	-0.01
474.723	-0.01
475.062	-0.01
475.401	-0.01
475.74	-0.01
476.08	-0.01
476.419	-0.01
476.758	-0.01
477.097	-0.01
477.436	-0.01
477.775	-0.01
478.114	-0.01
478.453	-0.01
478.792	-0.01
479.131	-0.01
479.47	-0.01
479.809	-0.01
480.148	-0.01
480.486	-0.01
480.825	-0.01
481.164	-0
481.503	-0
481.842	-0
482.181	-0
482.519	-0
482.858	-0
483.197	-0
483.535	-0
483.874	-0
484.213	-0
484.551	-0
484.89	-0
485.229	-0.01
485.567	-0.01
485.906	-0
486.244	-0
486.583	-0
486.921	-0
487.26	-0.01
487.598	-0.01
487.937	-0.01
488.275	-0
488.614	-0
488.952	0
489.29	-0
489.629	-0.01
489.967	-0.01
490.305	-0.01
490.644	-0.01
490.982	-0.01
491.32	-0.01
491.658	-0.01
491.997	-0.01
492.335	-0.01
492.673	-0.01
493.011	-0.01
493.349	-0.01
493.687	-0.01
494.026	-0.01
494.364	-0.01
494.702	-0.01
495.04	-0.01
495.378	-0.01
495.716	-0.01
496.054	-0.01
496.392	-0.01
496.73	-0.01
497.068	-0.01
497.406	-0.01
497.743	-0.01
498.081	-0.01
498.419	-0.01
498.757	-0.01
499.095	-0.01
499.433	-0.01
499.77	-0.01
500.108	-0.01
500.446	-0.01
500.784	-0.01
501.121	-0.01
501.459	-0.01
501.797	-0.01
502.134	-0.01
502.472	-0.01
502.809	-0.01
503.147	-0.01
503.485	-0
503.822	-0
504.16	-0
504.497	-0
504.835	-0
505.172	-0
505.509	-0
505.847	-0
506.184	-0
506.522	0
506.859	0
507.196	0
507.534	-0
507.871	-0
508.208	-0
508.546	0
508.883	0
509.22	0
509.557	0
509.894	-0
510.232	-0
510.569	-0
510.906	-0
511.243	-0
511.58	-0
511.917	-0
512.254	-0
512.591	-0.01
512.928	-0.01
513.265	-0.01
513.602	-0.01
513.939	-0.01
514.276	-0.01
514.613	-0.01
514.95	-0.01
515.287	-0
515.624	-0
515.96	-0
516.297	-0
516.634	-0
516.971	-0
517.308	-0
517.644	-0
517.981	-0
518.318	-0
518.654	-0
518.991	-0
519.328	-0
519.664	-0
520.001	-0
520.337	0
520.674	0
521.011	0
521.347	0
521.684	0
522.02	0
522.357	0
522.693	0
523.029	0.01
523.366	0.01
523.702	0.01
524.039	0.01
524.375	0
524.711	0
525.048	0
525.384	0
525.72	0
526.056	0
526.393	0
526.729	0
527.065	-0
527.401	-0
527.737	-0
528.073	-0
528.41	-0
528.746	-0
529.082	-0
529.418	-0.01
529.754	-0.01
530.09	-0.01
530.426	-0.01
530.762	-0.01
531.098	-0.01
531.434	-0.01
531.77	-0.01
532.105	-0.01
532.441	-0
532.777	-0
533.113	-0
533.449	-0
533.785	-0
534.12	0
534.456	0
534.792	0
535.128	0
535.463	0
535.799	0
536.135	0
536.47	0
536.806	0
537.141	0
537.477	0
537.813	0
538.148	0
538.484	0
538.819	0
539.155	0
539.49	0
539.826	0
540.161	0
540.496	0
540.832	0
541.167	0
541.502	0
541.838	0
542.173	0
542.508	0
542.844	0
543.179	0
543.514	-0
543.849	-0
544.185	-0
544.52	-0
544.855	-0
545.19	-0
545.525	-0
545.86	-0
546.195	-0
546.53	-0
546.865	-0
547.2	-0
547.535	-0
547.87	-0
548.205	-0
548.54	-0
548.875	0
549.21	-0
549.545	0
549.88	0
550.214	0
550.549	0
550.884	0
551.219	0
551.554	0
551.888	0
552.223	0
552.558	0
552.892	0
553.227	0
553.562	0
553.896	0
554.231	0
554.565	0
554.9	0
555.235	-0
555.569	-0
555.904	-0
556.238	-0
556.572	-0
556.907	-0
557.241	-0
557.576	-0
557.91	-0
558.244	-0.01
558.579	-0.01
558.913	-0.01
559.247	-0.01
559.582	-0.01
559.916	-0.01
560.25	-0.01
560.584	-0.01
560.919	-0.01
561.253	-0.01
561.587	-0.01
561.921	-0
562.255	-0
562.589	-0
562.923	-0
563.257	-0
563.591	-0
563.925	-0
564.259	-0
564.593	-0
564.927	-0
565.261	-0
565.595	-0
565.929	-0
566.263	-0
566.597	-0
566.931	0
567.265	0
567.598	0
567.932	0
568.266	0
568.6	-0
568.933	-0
569.267	-0
569.601	-0.01
569.934	-0.01
570.268	-0.01
570.602	-0.01
570.935	-0.01
571.269	-0.01
571.602	-0.01
571.936	-0.01
572.269	-0.01
572.603	-0.01
572.936	-0.01
573.27	-0.01
573.603	-0.01
573.937	-0.01
574.27	-0.01
574.603	-0.01
574.937	-0.01
575.27	-0.01
575.603	-0.01
575.937	-0.01
576.27	-0.01
576.603	-0.01
576.937	-0.01
577.27	-0
577.603	-0
577.936	-0
578.269	-0
578.602	-0
578.936	-0
579.269	-0
579.602	-0
579.935	-0
580.268	-0
580.601	-0
580.934	-0.01
581.267	-0.01
581.6	-0.01
581.933	-0.01
582.266	-0.01
582.599	-0.01
582.931	-0.01
583.264	-0.01
583.597	-0.01
583.93	-0.01
584.263	-0.01
584.596	-0.01
584.928	-0.01
585.261	-0.01
585.594	-0.01
585.927	-0.01
586.259	-0.01
586.592	-0.01
586.925	-0.01
587.257	-0.01
587.59	-0.01
587.922	-0.01
588.255	-0.01
588.587	-0.01
588.92	-0.01
589.252	-0.01
589.585	-0.01
589.917	-0.01
590.25	-0.01
590.582	-0
590.915	-0
591.247	-0
591.579	-0
591.912	-0
592.244	0
592.576	0
592.909	0
593.241	0
593.573	0
593.905	-0
594.238	-0
594.57	0
594.902	0
595.234	-0
595.566	0
595.898	-0
596.23	-0
596.562	-0
596.894	-0
597.226	-0.01
597.558	-0.01
597.89	-0.01
598.222	-0.01
598.554	-0.01
598.886	-0.01
599.218	-0.01
599.55	-0.01
599.882	-0.01
600.214	-0.01
600.546	-0.01
600.877	-0.01
601.209	-0.01
601.541	-0.01
601.873	-0.01
602.204	-0.01
602.536	-0.01
602.868	-0.01
603.199	-0.01
603.531	-0.01
603.863	-0
604.194	-0
604.526	-0
604.857	-0
605.189	-0
605.52	-0
605.852	-0
606.183	-0
606.515	0
606.846	0
607.178	0
607.509	0
607.84	0
608.172	0
608.503	0
608.834	0
609.166	0
609.497	0
609.828	0
610.159	0
610.491	0
610.822	-0
611.153	-0
611.484	-0
611.815	-0
612.146	-0
612.478	-0
612.809	-0
613.14	-0
613.471	-0
613.802	-0
614.133	-0
614.464	-0
614.795	-0
615.126	-0
615.456	-0
615.787	-0
616.118	-0
616.449	-0
616.78	-0
617.111	0
617.441	0
617.772	0
618.103	0
618.434	0
618.764	0
619.095	0
619.426	0
619.756	0
620.087	0
620.418	-0
620.748	-0
621.079	-0
621.409	-0
621.74	-0
622.07	-0
622.401	-0
622.731	-0
623.062	0
623.392	0
623.723	-0
624.053	-0
624.383	-0
624.714	-0
625.044	-0
625.374	-0
625.705	-0
626.035	-0
626.365	-0
626.695	-0
627.026	-0
627.356	-0
627.686	-0
628.016	-0
628.346	-0
628.676	-0
629.006	0
629.336	0
629.666	0
629.996	0
630.326	0
630.656	0
630.986	0
631.316	0
631.646	0
631.976	0
632.306	0
632.636	0
632.966	0
633.295	0
633.625	0
633.955	0.01
634.285	0.01
634.615	0.01
634.944	0.01
635.274	0.01
635.604	0.01
635.933	0.01
636.263	0.01
636.593	0.01
636.922	0.01
637.252	0
637.581	0
637.911	0
638.24	-0
638.57	-0
638.899	-0
639.229	-0
639.558	-0
639.888	-0
640.217	-0
640.546	-0
640.876	-0
641.205	-0
641.534	-0
641.864	-0
642.193	-0
642.522	-0
642.851	-0
643.18	-0
643.51	-0
643.839	-0
644.168	-0
644.497	0
644.826	0
645.155	0
645.484	0
645.813	0
646.142	0
646.471	0.01
646.8	0.01
647.129	0.01
647.458	0.01
647.787	0.01
648.116	0
648.445	0
648.774	0
649.103	0
649.431	0
649.76	0
650.089	0
650.418	0
650.747	0
651.075	0
651.404	0
651.733	0
652.061	0
652.39	0
652.718	0
653.047	0
653.376	0
653.704	-0
654.033	0
654.361	0
654.69	0
655.018	0
655.347	0
655.675	0
656.003	0
656.332	0
656.66	0
656.989	0.01
657.317	0.01
657.645	0.01
657.973	0.01
658.302	0.01
658.63	0.01
658.958	0.01
659.286	0.01
659.615	0.01
659.943	0.01
660.271	0.02
660.599	0
660.927	0
661.255	0
661.583	0
661.911	0
662.239	-0
662.567	-0
662.895	-0
663.223	-0
663.551	-0
663.879	-0
664.207	-0
664.535	-0
664.863	-0
665.19	-0
665.518	-0.01
665.846	-0.01
666.174	-0.01
666.502	-0.01
666.829	-0
667.157	-0
667.485	-0
667.812	-0
668.14	-0
668.468	-0
668.795	0
669.123	0
669.45	0
669.778	0
670.105	0
670.433	0
670.76	0
671.088	0
671.415	0
671.743	0
672.07	0
672.398	0
672.725	0
673.052	0
673.38	0
673.707	0
674.034	0
674.361	0
674.689	0
675.016	0.01
675.343	0
675.67	0
675.997	0
676.324	0.01
676.652	0
676.979	0
677.306	0
677.633	0
677.96	-0
678.287	-0
678.614	-0
678.941	-0
679.268	0
679.595	0
679.922	0
680.248	0
680.575	0
680.902	0
681.229	0.01
681.556	0.01
681.882	0.01
682.209	0.01
682.536	0.01
682.863	0.01
683.189	0.01
683.516	0.01
683.843	0.01
684.169	0.01
684.496	0.01
684.823	0.01
685.149	0.01
685.476	0.01
